# Temperature, Energy expectationvalue, M expectationvalue, Susceptibility expectationvalue
10000  -7.99553    3.99851   1.15827e+020
10100  -7.99565    3.99856   1.13959e+020
10200  -7.99519    3.99841   1.13375e+020
10300  -7.99449    3.99816   1.12445e+020
10400  -7.99395    3.99799   1.11328e+020
10500  -7.99339    3.99781   1.10292e+020
10600  -7.99271    3.99759   1.09182e+020
10700  -7.99163    3.99721   1.08146e+020
10800  -7.99084    3.99694   1.07106e+020
10900  -7.98926    3.9964   1.06195e+020
11000  -7.98928    3.99643   1.03526e+020
11100  -7.98834    3.99611   1.04232e+020
11200  -7.98704    3.99567   1.02235e+020
11300  -7.98602    3.99533   1.0226e+020
11400  -7.98628    3.99542   1.01161e+020
11500  -7.98522    3.99507   1.0055e+020
11600  -7.98465    3.99488   9.9732e+019
11700  -7.9832    3.9944   9.88593e+019
11800  -7.98152    3.99384   9.75941e+019
11900  -7.98055    3.99352   9.6727e+019
12000  -7.97966    3.99324   9.62508e+019
12100  -7.97835    3.9928   9.53693e+019
12200  -7.97479    3.99159   9.47363e+019
12300  -7.97343    3.99114   9.39308e+019
12400  -7.97275    3.9909   9.27748e+019
12500  -7.97217    3.99072   9.20227e+019
12600  -7.97051    3.99017   9.1667e+019
12700  -7.96829    3.98943   9.0948e+019
12800  -7.96589    3.98863   9.00752e+019
12900  -7.96422    3.98808   8.94397e+019
13000  -7.96216    3.98735   8.87077e+019
13100  -7.95976    3.98655   8.80553e+019
13200  -7.95734    3.98578   8.74024e+019
13300  -7.95681    3.9856   8.67136e+019
13400  -7.9544    3.9848   8.60722e+019
13500  -7.95036    3.98343   8.51998e+019
13600  -7.94798    3.98264   8.47495e+019
13700  -7.9447    3.98157   8.41023e+019
13800  -7.94212    3.98071   8.33638e+019
13900  -7.93774    3.97921   8.28058e+019
14000  -7.93819    3.9794   8.22192e+019
14100  -7.93502    3.97834   8.16218e+019
14200  -7.9313    3.97713   8.10248e+019
14300  -7.92787    3.97599   8.04082e+019
14400  -7.92483    3.97495   7.9845e+019
14500  -7.92156    3.97387   7.92687e+019
14600  -7.91684    3.97233   7.86592e+019
14700  -7.91538    3.97178   7.81379e+019
14800  -7.91169    3.97055   7.74857e+019
14900  -7.90746    3.96915   7.70229e+019
15000  -7.90305    3.96767   7.63826e+019
15100  -7.89775    3.96594   7.59071e+019
15200  -7.89343    3.96451   7.53956e+019
15300  -7.8876    3.96249   7.48153e+019
15400  -7.88303    3.96096   7.43233e+019
15500  -7.87844    3.95943   7.3815e+019
15600  -7.87416    3.95802   7.33078e+019
15700  -7.87262    3.95755   7.28335e+019
15800  -7.86817    3.95606   7.2338e+019
15900  -7.86026    3.9534   7.18207e+019
16000  -7.85766    3.9526   7.13544e+019
16100  -7.85205    3.95073   7.08713e+019
16200  -7.84298    3.94763   7.03642e+019
16300  -7.83729    3.94574   6.98738e+019
16400  -7.8356    3.94522   6.94532e+019
16500  -7.82994    3.94334   6.89813e+019
16600  -7.82613    3.94208   6.8548e+019
16700  -7.82041    3.94018   6.80856e+019
16800  -7.80954    3.93639   6.76071e+019
16900  -7.80299    3.93421   6.71547e+019
17000  -7.79903    3.93295   6.67387e+019
17100  -7.79317    3.931   6.63094e+019
17200  -7.78811    3.92942   6.58858e+019
17300  -7.78154    3.92723   6.54627e+019
17400  -7.77416    3.9248   6.50361e+019
17500  -7.76715    3.92246   6.46158e+019
17600  -7.76059    3.92026   6.41988e+019
17700  -7.75542    3.91853   6.38017e+019
17800  -7.7484    3.91621   6.33784e+019
17900  -7.74072    3.91364   6.2994e+019
18000  -7.73318    3.91112   6.25927e+019
18100  -7.72253    3.90752   6.21651e+019
18200  -7.7145    3.90484   6.17629e+019
18300  -7.71046    3.90353   6.14063e+019
18400  -7.70329    3.90114   6.10363e+019
18500  -7.6939    3.89798   6.06254e+019
18600  -7.68614    3.8954   6.02697e+019
18700  -7.67771    3.89259   5.98792e+019
18800  -7.66962    3.88996   5.95136e+019
18900  -7.66058    3.88693   5.91489e+019
19000  -7.65176    3.88401   5.87777e+019
19100  -7.64318    3.88115   5.84212e+019
19200  -7.63347    3.87791   5.8056e+019
19300  -7.62532    3.87519   5.77042e+019
19400  -7.61954    3.87322   5.73626e+019
19500  -7.61067    3.87027   5.7021e+019
19600  -7.59528    3.86517   5.66347e+019
19700  -7.58587    3.86203   5.62783e+019
19800  -7.58591    3.86214   5.60068e+019
19900  -7.5771    3.85924   5.56723e+019
20000  -7.56789    3.85617   5.53395e+019
20100  -7.55431    3.85167   5.49771e+019
20200  -7.54478    3.84849   5.46476e+019
20300  -7.52539    3.8419   5.42684e+019
20400  -7.52505    3.84184   5.39947e+019
20500  -7.51443    3.8383   5.36748e+019
20600  -7.50106    3.83391   5.33362e+019
20700  -7.49016    3.83028   5.30149e+019
20800  -7.48048    3.82701   5.27029e+019
20900  -7.46667    3.82234   5.23726e+019
21000  -7.45638    3.81892   5.20622e+019
21100  -7.44927    3.81659   5.17771e+019
21200  -7.43822    3.81291   5.14701e+019
21300  -7.42446    3.80833   5.11462e+019
21400  -7.41362    3.80474   5.08507e+019
21500  -7.41235    3.80442   5.06033e+019
21600  -7.40078    3.80057   5.03024e+019
21700  -7.38154    3.79414   4.99636e+019
21800  -7.36985    3.79024   4.96763e+019
21900  -7.36082    3.78722   4.94e+019
22000  -7.34958    3.78349   4.91138e+019
22100  -7.33057    3.77718   4.8788e+019
22200  -7.33023    3.77704   4.85671e+019
22300  -7.31871    3.77321   4.82857e+019
22400  -7.30775    3.76956   4.80125e+019
22500  -7.2962    3.76572   4.77372e+019
22600  -7.27926    3.76008   4.74362e+019
22700  -7.2667    3.7559   4.71557e+019
22800  -7.25238    3.75109   4.68777e+019
22900  -7.23988    3.74694   4.66072e+019
23000  -7.23627    3.74578   4.63863e+019
23100  -7.22369    3.7416   4.61196e+019
23200  -7.20341    3.7347   4.58132e+019
23300  -7.1987    3.73339   4.5595e+019
23400  -7.18593    3.72915   4.53347e+019
23500  -7.17179    3.72451   4.50709e+019
23600  -7.1583    3.72004   4.48115e+019
23700  -7.13764    3.71295   4.4514e+019
23800  -7.12452    3.70849   4.42627e+019
23900  -7.11137    3.70412   4.40106e+019
24000  -7.10568    3.70245   4.37981e+019
24100  -7.09282    3.69819   4.35536e+019
24200  -7.08011    3.69406   4.3312e+019
24300  -7.06728    3.68979   4.30675e+019
24400  -7.0508    3.68411   4.28115e+019
24500  -7.03786    3.67983   4.25739e+019
24600  -7.02729    3.67636   4.2347e+019
24700  -7.01076    3.67093   4.20949e+019
24800  -6.9971    3.66641   4.18601e+019
24900  -6.98578    3.66266   4.16404e+019
25000  -6.97207    3.6581   4.14074e+019
25100  -6.95323    3.65177   4.11521e+019
25200  -6.93909    3.64706   4.09206e+019
25300  -6.93303    3.6453   4.0732e+019
25400  -6.91392    3.63865   4.04795e+019
25500  -6.90148    3.63455   4.02629e+019
25600  -6.89019    3.63078   4.00518e+019
25700  -6.87707    3.62645   3.98359e+019
25800  -6.86236    3.62165   3.9614e+019
25900  -6.84896    3.61722   3.93946e+019
26000  -6.83271    3.61181   3.91728e+019
26100  -6.81894    3.60725   3.89595e+019
26200  -6.80377    3.60206   3.87408e+019
26300  -6.79405    3.59894   3.8546e+019
26400  -6.78031    3.5944   3.83412e+019
26500  -6.76552    3.58959   3.81301e+019
26600  -6.75156    3.58498   3.7921e+019
26700  -6.73858    3.58052   3.77227e+019
26800  -6.72476    3.57593   3.75205e+019
26900  -6.70616    3.56961   3.7296e+019
27000  -6.69144    3.56471   3.7093e+019
27100  -6.68918    3.5644   3.69503e+019
27200  -6.67517    3.55976   3.67523e+019
27300  -6.64328    3.54898   3.64768e+019
27400  -6.63781    3.54716   3.63185e+019
27500  -6.62413    3.54263   3.61275e+019
27600  -6.60738    3.53707   3.59217e+019
27700  -6.59487    3.53295   3.57397e+019
27800  -6.58309    3.52915   3.55599e+019
27900  -6.56795    3.52412   3.53699e+019
28000  -6.55808    3.52081   3.5198e+019
28100  -6.52617    3.51016   3.49395e+019
28200  -6.51148    3.50531   3.47528e+019
28300  -6.50613    3.50358   3.4609e+019
28400  -6.49227    3.499   3.44265e+019
28500  -6.48428    3.49636   3.42742e+019
28600  -6.46983    3.49157   3.40938e+019
28700  -6.44616    3.4837   3.38768e+019
28800  -6.43151    3.47887   3.36983e+019
28900  -6.41966    3.47478   3.35321e+019
29000  -6.40568    3.47019   3.33594e+019
29100  -6.39313    3.46628   3.31946e+019
29200  -6.37135    3.45906   3.29919e+019
29300  -6.3569    3.45427   3.28168e+019
29400  -6.35763    3.45455   3.27115e+019
29500  -6.34424    3.45011   3.25469e+019
29600  -6.32607    3.44409   3.23637e+019
29700  -6.3118    3.43935   3.21968e+019
29800  -6.29729    3.43458   3.20297e+019
29900  -6.28319    3.42995   3.1868e+019
30000  -6.27041    3.42565   3.17113e+019
30100  -6.25589    3.42082   3.15482e+019
30200  -6.2314    3.41273   3.1347e+019
30300  -6.22137    3.40945   3.12042e+019
30400  -6.20761    3.40491   3.10478e+019
30500  -6.19003    3.3988   3.08758e+019
30600  -6.17656    3.39438   3.07226e+019
30700  -6.17274    3.39344   3.06097e+019
30800  -6.1581    3.3886   3.04537e+019
30900  -6.13869    3.38228   3.0281e+019
31000  -6.12491    3.37774   3.01299e+019
31100  -6.10788    3.3717   2.99654e+019
31200  -6.0939    3.36709   2.98163e+019
31300  -6.08204    3.36339   2.96754e+019
31400  -6.06794    3.35874   2.95297e+019
31500  -6.06139    3.35666   2.94119e+019
31600  -6.04779    3.35224   2.92684e+019
31700  -6.03392    3.34769   2.91241e+019
31800  -6.0073    3.33875   2.89323e+019
31900  -5.99331    3.33411   2.87893e+019
32000  -5.98642    3.33194   2.86743e+019
32100  -5.97298    3.32753   2.85354e+019
32200  -5.95181    3.32047   2.83686e+019
32300  -5.93794    3.31591   2.82299e+019
32400  -5.92615    3.31188   2.80985e+019
32500  -5.91206    3.30721   2.79604e+019
32600  -5.90279    3.30437   2.78419e+019
32700  -5.88492    3.29825   2.769e+019
32800  -5.87126    3.29375   2.75563e+019
32900  -5.85191    3.28734   2.74025e+019
33000  -5.83827    3.28286   2.72716e+019
33100  -5.83051    3.28021   2.716e+019
33200  -5.81648    3.27559   2.70281e+019
33300  -5.80146    3.27081   2.68946e+019
33400  -5.78783    3.26629   2.67662e+019
33500  -5.77209    3.26111   2.66298e+019
33600  -5.75874    3.25671   2.65028e+019
33700  -5.75343    3.25506   2.64077e+019
33800  -5.73336    3.24801   2.62568e+019
33900  -5.71972    3.24352   2.61319e+019
34000  -5.70968    3.24058   2.60219e+019
34100  -5.69655    3.23628   2.58996e+019
34200  -5.67361    3.22852   2.57446e+019
34300  -5.66019    3.22409   2.56228e+019
34400  -5.65605    3.22293   2.55347e+019
34500  -5.6428    3.21857   2.54155e+019
34600  -5.63103    3.21493   2.53029e+019
34700  -5.61728    3.2104   2.51831e+019
34800  -5.59933    3.20438   2.50489e+019
34900  -5.58748    3.20027   2.49355e+019
35000  -5.57421    3.19592   2.48197e+019
35100  -5.56694    3.1938   2.47259e+019
35200  -5.55331    3.1893   2.46089e+019
35300  -5.54166    3.18543   2.4502e+019
35400  -5.52959    3.18147   2.43927e+019
35500  -5.50956    3.17467   2.42561e+019
35600  -5.49639    3.17033   2.41441e+019
35700  -5.48033    3.1653   2.40241e+019
35800  -5.46764    3.16115   2.39158e+019
35900  -5.45751    3.1578   2.38157e+019
36000  -5.43734    3.15091   2.36821e+019
36100  -5.4244    3.14664   2.35744e+019
36200  -5.42153    3.14587   2.35003e+019
36300  -5.40914    3.14182   2.33953e+019
36400  -5.3897    3.13525   2.32676e+019
36500  -5.37649    3.1309   2.3161e+019
36600  -5.36695    3.12785   2.30664e+019
36700  -5.35408    3.12364   2.29627e+019
36800  -5.33967    3.11907   2.28554e+019
36900  -5.32739    3.11494   2.2754e+019
37000  -5.31445    3.11069   2.26513e+019
37100  -5.30019    3.10586   2.25444e+019
37200  -5.28699    3.10154   2.24421e+019
37300  -5.2825    3.10042   2.23697e+019
37400  -5.2688    3.09589   2.22666e+019
37500  -5.24957    3.08943   2.21456e+019
37600  -5.23662    3.08517   2.20463e+019
37700  -5.22658    3.08185   2.19564e+019
37800  -5.21439    3.07786   2.18602e+019
37900  -5.21226    3.07738   2.17973e+019
38000  -5.18609    3.06855   2.16582e+019
38100  -5.17398    3.06459   2.1564e+019
38200  -5.17382    3.06459   2.15073e+019
38300  -5.16147    3.06054   2.14134e+019
38400  -5.15571    3.05901   2.13419e+019
38500  -5.14356    3.05506   2.12494e+019
38600  -5.11307    3.04481   2.11003e+019
38700  -5.10094    3.04082   2.10091e+019
38800  -5.10736    3.04331   2.09764e+019
38900  -5.09525    3.03932   2.08862e+019
39000  -5.07702    3.03297   2.07753e+019
39100  -5.06297    3.0285   2.06814e+019
39200  -5.05152    3.02474   2.05942e+019
39300  -5.04049    3.0213   2.05087e+019
39400  -5.02849    3.01734   2.04208e+019
39500  -5.00737    3.00998   2.03057e+019
39600  -4.99587    3.00622   2.02204e+019
39700  -4.98654    3.00321   2.01415e+019
39800  -4.97537    2.99955   2.00579e+019
39900  -4.96666    2.99688   1.99824e+019
40000  -4.9574    2.99386   1.99056e+019
40100  -4.94593    2.99008   1.98223e+019
40200  -4.93292    2.98572   1.97348e+019
40300  -4.92169    2.98206   1.96534e+019
40400  -4.91051    2.97834   1.9572e+019
40500  -4.89871    2.97448   1.94896e+019
40600  -4.88877    2.97175   1.94162e+019
40700  -4.87724    2.96801   1.93355e+019
40800  -4.85851    2.96116   1.92303e+019
40900  -4.8535    2.95965   1.91698e+019
41000  -4.84237    2.95602   1.90916e+019
41100  -4.83365    2.95353   1.90212e+019
41200  -4.82231    2.94978   1.89427e+019
41300  -4.80823    2.94548   1.88597e+019
41400  -4.79785    2.9421   1.8785e+019
41500  -4.78074    2.93596   1.86889e+019
41600  -4.77001    2.93246   1.8614e+019
41700  -4.76297    2.93023   1.85491e+019
41800  -4.75173    2.92655   1.84732e+019
41900  -4.73259    2.92043   1.83769e+019
42000  -4.72956    2.91915   1.83241e+019
42100  -4.71869    2.91565   1.82506e+019
42200  -4.71412    2.91468   1.81965e+019
42300  -4.70368    2.91124   1.81246e+019
42400  -4.68966    2.90641   1.80421e+019
42500  -4.67884    2.90288   1.797e+019
42600  -4.67539    2.90207   1.79203e+019
42700  -4.66502    2.89868   1.78499e+019
42800  -4.64549    2.89213   1.77551e+019
42900  -4.63495    2.8887   1.76852e+019
43000  -4.62312    2.88465   1.761e+019
43100  -4.6174    2.8832   1.75567e+019
43200  -4.60732    2.87992   1.7489e+019
43300  -4.59783    2.8765   1.74201e+019
43400  -4.58721    2.87307   1.73518e+019
43500  -4.57486    2.86922   1.72805e+019
43600  -4.56484    2.86599   1.72142e+019
43700  -4.54831    2.86016   1.71288e+019
43800  -4.53813    2.85682   1.70626e+019
43900  -4.52819    2.85374   1.69975e+019
44000  -4.52413    2.85249   1.69496e+019
44100  -4.51414    2.84925   1.6885e+019
44200  -4.50699    2.84678   1.68265e+019
44300  -4.49732    2.84364   1.67632e+019
44400  -4.48077    2.83847   1.66831e+019
44500  -4.47035    2.83506   1.66184e+019
44600  -4.46637    2.8339   1.6572e+019
44700  -4.45533    2.8303   1.65063e+019
44800  -4.44045    2.82532   1.64306e+019
44900  -4.43082    2.8222   1.63695e+019
45000  -4.4219    2.81911   1.63078e+019
45100  -4.42387    2.82042   1.6281e+019
45200  -4.41319    2.81694   1.62178e+019
45300  -4.39283    2.80982   1.61268e+019
45400  -4.38326    2.80678   1.60676e+019
45500  -4.38026    2.80608   1.60257e+019
45600  -4.37054    2.80292   1.5966e+019
45700  -4.3558    2.79783   1.58931e+019
45800  -4.33921    2.79246   1.58162e+019
45900  -4.33024    2.78959   1.57595e+019
46000  -4.32946    2.78915   1.57227e+019
46100  -4.32004    2.78609   1.5665e+019
46200  -4.3022    2.78042   1.55867e+019
46300  -4.29286    2.77738   1.55297e+019
46400  -4.29284    2.77746   1.54961e+019
46500  -4.28398    2.77461   1.54411e+019
46600  -4.27065    2.77035   1.53755e+019
46700  -4.26171    2.76748   1.53209e+019
46800  -4.25567    2.76561   1.52741e+019
46900  -4.24397    2.76156   1.52111e+019
47000  -4.23445    2.75851   1.51556e+019
47100  -4.22934    2.75708   1.51121e+019
47200  -4.21936    2.75381   1.50555e+019
47300  -4.20454    2.74898   1.4988e+019
47400  -4.19617    2.74629   1.49362e+019
47500  -4.19586    2.7461   1.4903e+019
47600  -4.18669    2.74315   1.48497e+019
47700  -4.1729    2.73885   1.47858e+019
47800  -4.16351    2.73581   1.47323e+019
47900  -4.15242    2.73211   1.46747e+019
48000  -4.14312    2.72913   1.4622e+019
48100  -4.14551    2.73004   1.45983e+019
48200  -4.12318    2.72233   1.45121e+019
48300  -4.11462    2.71959   1.4462e+019
48400  -4.11434    2.71997   1.44342e+019
48500  -4.10612    2.71733   1.43851e+019
48600  -4.10037    2.71587   1.43436e+019
48700  -4.09132    2.71293   1.42928e+019
48800  -4.07711    2.70804   1.42276e+019
48900  -4.06909    2.70545   1.41798e+019
49000  -4.06268    2.70321   1.41356e+019
49100  -4.05467    2.70064   1.40882e+019
49200  -4.04567    2.69769   1.40382e+019
49300  -4.03148    2.69305   1.39765e+019
49400  -4.02321    2.69038   1.3929e+019
49500  -4.01963    2.68877   1.38906e+019
49600  -4.01205    2.68636   1.38452e+019
49700  -4.00408    2.68439   1.38019e+019
49800  -3.99539    2.68156   1.37541e+019
49900  -3.98316    2.67775   1.36991e+019
50000  -3.97556    2.67534   1.36541e+019
50100  -3.96756    2.67214   1.36058e+019
50200  -3.95946    2.66952   1.35602e+019
50300  -3.94936    2.66678   1.35143e+019
50400  -3.94841    2.6666   1.34855e+019
50500  -3.94054    2.66407   1.34408e+019
50600  -3.93333    2.66174   1.33977e+019
50700  -3.92559    2.65924   1.33539e+019
50800  -3.91961    2.65744   1.3315e+019
50900  -3.91082    2.65459   1.32691e+019
51000  -3.89475    2.64934   1.32066e+019
51100  -3.88714    2.6469   1.31638e+019
51200  -3.88421    2.64584   1.31307e+019
51300  -3.88128    2.64462   1.30972e+019
51400  -3.87363    2.64217   1.30548e+019
51500  -3.85733    2.63709   1.29944e+019
51600  -3.84972    2.63466   1.29526e+019
51700  -3.84267    2.63245   1.29127e+019
51800  -3.83424    2.62969   1.2869e+019
51900  -3.82743    2.62759   1.28289e+019
52000  -3.81996    2.62516   1.27877e+019
52100  -3.81585    2.62385   1.27545e+019
52200  -3.80886    2.62163   1.27149e+019
52300  -3.79562    2.6171   1.26607e+019
52400  -3.78741    2.61487   1.26206e+019
52500  -3.77978    2.61241   1.258e+019
52600  -3.7694    2.60872   1.25323e+019
52700  -3.76198    2.60634   1.24927e+019
52800  -3.76216    2.60661   1.247e+019
52900  -3.75615    2.60483   1.24341e+019
53000  -3.748    2.60218   1.2393e+019
53100  -3.73674    2.59845   1.23454e+019
53200  -3.7292    2.596   1.2306e+019
53300  -3.7199    2.59267   1.22618e+019
53400  -3.7096    2.58939   1.22166e+019
53500  -3.70248    2.58713   1.21786e+019
53600  -3.70347    2.58777   1.216e+019
53700  -3.6967    2.58559   1.2123e+019
53800  -3.68479    2.58168   1.20749e+019
53900  -3.67724    2.57928   1.20367e+019
54000  -3.66696    2.57582   1.19924e+019
54100  -3.65924    2.57336   1.19541e+019
54200  -3.65153    2.57128   1.19161e+019
54300  -3.65786    2.57303   1.19076e+019
54400  -3.65138    2.57096   1.18722e+019
54500  -3.63941    2.56732   1.18267e+019
54600  -3.63256    2.56515   1.17911e+019
54700  -3.62456    2.56262   1.17526e+019
54800  -3.61761    2.56038   1.17168e+019
54900  -3.60321    2.55541   1.16643e+019
55000  -3.60958    2.5579   1.16585e+019
55100  -3.60236    2.55561   1.16227e+019
55200  -3.58557    2.54971   1.1564e+019
55300  -3.57887    2.54758   1.15294e+019
55400  -3.57528    2.54669   1.15031e+019
55500  -3.56901    2.54469   1.14696e+019
55600  -3.56766    2.54445   1.14477e+019
55700  -3.56086    2.54227   1.14133e+019
55800  -3.54127    2.53555   1.13513e+019
55900  -3.53879    2.53518   1.13279e+019
56000  -3.53226    2.53308   1.12945e+019
56100  -3.52711    2.53148   1.12639e+019
56200  -3.52092    2.52951   1.12317e+019
56300  -3.5116    2.52672   1.11938e+019
56400  -3.50474    2.52453   1.11604e+019
56500  -3.50531    2.52467   1.11411e+019
56600  -3.49828    2.5224   1.11075e+019
56700  -3.48736    2.51809   1.10622e+019
56800  -3.48405    2.51759   1.10393e+019
56900  -3.47839    2.51581   1.10088e+019
57000  -3.47636    2.51523   1.09856e+019
57100  -3.47035    2.51331   1.09545e+019
57200  -3.45751    2.50893   1.09089e+019
57300  -3.4516    2.50708   1.08784e+019
57400  -3.44886    2.50625   1.08542e+019
57500  -3.44228    2.50432   1.08235e+019
57600  -3.43584    2.50225   1.07921e+019
57700  -3.42651    2.49894   1.07532e+019
57800  -3.42055    2.49705   1.07231e+019
57900  -3.40824    2.49383   1.06841e+019
58000  -3.4019    2.49179   1.06534e+019
58100  -3.39736    2.48985   1.06242e+019
58200  -3.39151    2.48801   1.05948e+019
58300  -3.39654    2.49041   1.05896e+019
58400  -3.38331    2.48551   1.05431e+019
58500  -3.37764    2.48369   1.05143e+019
58600  -3.37238    2.48238   1.04877e+019
58700  -3.36673    2.48059   1.04591e+019
58800  -3.36105    2.47843   1.04299e+019
58900  -3.35541    2.47665   1.04016e+019
59000  -3.35566    2.47714   1.03859e+019
59100  -3.34108    2.4724   1.03403e+019
59200  -3.33511    2.47048   1.03116e+019
59300  -3.33305    2.4698   1.02902e+019
59400  -3.32566    2.46748   1.02597e+019
59500  -3.32012    2.46576   1.02321e+019
59600  -3.31132    2.46291   1.01975e+019
59700  -3.30521    2.46098   1.01691e+019
59800  -3.29973    2.45913   1.01411e+019
59900  -3.29654    2.45795   1.0118e+019
60000  -3.29082    2.45614   1.00905e+019
60100  -3.2834    2.454   1.0061e+019
60200  -3.2722    2.45036   1.00234e+019
60300  -3.27228    2.45024   1.00068e+019
60400  -3.26705    2.44862   9.98082e+018
60500  -3.2606    2.44642   9.95104e+018
60600  -3.25758    2.4457   9.92972e+018
60700  -3.25187    2.4439   9.90298e+018
60800  -3.24289    2.44095   9.86954e+018
60900  -3.23759    2.4393   9.84365e+018
61000  -3.22853    2.43597   9.80934e+018
61100  -3.22849    2.43663   9.79578e+018
61200  -3.22288    2.43485   9.76946e+018
61300  -3.21477    2.43205   9.73849e+018
61400  -3.20887    2.43017   9.71187e+018
61500  -3.20571    2.42966   9.69296e+018
61600  -3.21205    2.43167   9.68805e+018
61700  -3.20671    2.43002   9.66289e+018
61800  -3.17923    2.42104   9.59745e+018
61900  -3.17347    2.41925   9.57179e+018
62000  -3.171    2.41801   9.54922e+018
62100  -3.17037    2.41784   9.53378e+018
62200  -3.1648    2.41608   9.50849e+018
62300  -3.15781    2.41408   9.48071e+018
62400  -3.15009    2.41135   9.45126e+018
62500  -3.14453    2.40959   9.42624e+018
62600  -3.14479    2.41024   9.41317e+018
62700  -3.13285    2.40576   9.3747e+018
62800  -3.12756    2.40411   9.35054e+018
62900  -3.12879    2.40461   9.33872e+018
63000  -3.12348    2.40296   9.31488e+018
63100  -3.11104    2.39924   9.27852e+018
63200  -3.10926    2.39876   9.26181e+018
63300  -3.10478    2.39737   9.2395e+018
63400  -3.10372    2.39733   9.22372e+018
63500  -3.09827    2.39562   9.19971e+018
63600  -3.09185    2.39332   9.173e+018
63700  -3.08612    2.39151   9.14857e+018
63800  -3.08768    2.39205   9.13795e+018
63900  -3.07835    2.3889   9.10645e+018
64000  -3.07302    2.3872   9.08283e+018
64100  -3.06672    2.38539   9.05853e+018
64200  -3.0616    2.38374   9.03551e+018
64300  -3.0527    2.38113   9.00646e+018
64400  -3.06283    2.38492   9.01195e+018
64500  -3.05793    2.38339   8.98973e+018
64600  -3.0427    2.37791   8.94812e+018
64700  -3.03737    2.37623   8.92526e+018
64800  -3.03583    2.37602   8.90947e+018
64900  -3.02237    2.37177   8.87261e+018
65000  -3.01736    2.37022   8.85065e+018
65100  -3.02439    2.37233   8.8492e+018
65200  -3.01966    2.37085   8.82763e+018
65300  -3.00859    2.36726   8.79461e+018
65400  -3.00366    2.36585   8.77393e+018
65500  -2.99875    2.36436   8.75239e+018
65600  -2.98822    2.36076   8.72021e+018
65700  -2.98367    2.35935   8.69945e+018
65800  -2.97981    2.3582   8.68052e+018
65900  -2.97499    2.35644   8.65778e+018
66000  -2.97025    2.35495   8.63672e+018
66100  -2.96618    2.35358   8.61676e+018
66200  -2.96105    2.35196   8.59516e+018
66300  -2.96074    2.35234   8.58318e+018
66400  -2.95604    2.35084   8.56243e+018
66500  -2.94775    2.34803   8.53533e+018
66600  -2.94338    2.34667   8.51529e+018
66700  -2.93861    2.34505   8.49458e+018
66800  -2.93608    2.34406   8.47649e+018
66900  -2.93159    2.34265   8.45661e+018
67000  -2.9212    2.33958   8.42764e+018
67100  -2.91631    2.33804   8.40716e+018
67200  -2.91172    2.33656   8.38731e+018
67300  -2.90735    2.33522   8.36781e+018
67400  -2.90953    2.33611   8.35979e+018
67500  -2.90218    2.33353   8.33458e+018
67600  -2.89787    2.33219   8.31536e+018
67700  -2.89332    2.3306   8.29468e+018
67800  -2.88883    2.3292   8.27524e+018
67900  -2.88688    2.32922   8.26239e+018
68000  -2.88209    2.32772   8.2426e+018
68100  -2.87864    2.3267   8.2257e+018
68200  -2.8715    2.32399   8.20003e+018
68300  -2.86683    2.32248   8.18039e+018
68400  -2.85548    2.31914   8.15134e+018
68500  -2.85088    2.3177   8.13222e+018
68600  -2.84945    2.31748   8.11883e+018
68700  -2.84521    2.31615   8.10031e+018
68800  -2.85256    2.31851   8.09983e+018
68900  -2.84857    2.31727   8.0818e+018
69000  -2.8368    2.31319   8.04983e+018
69100  -2.82528    2.3097   8.02084e+018
69200  -2.82078    2.30828   8.00216e+018
69300  -2.82766    2.31045   8.00157e+018
69400  -2.82324    2.30907   7.98307e+018
69500  -2.81686    2.30738   7.96341e+018
69600  -2.81272    2.3061   7.9456e+018
69700  -2.80276    2.30259   7.91666e+018
69800  -2.79982    2.30176   7.90085e+018
69900  -2.7956    2.30048   7.8831e+018
70000  -2.79192    2.29923   7.8661e+018
70100  -2.78737    2.29781   7.8479e+018
70200  -2.78125    2.29603   7.82748e+018
70300  -2.77749    2.29491   7.81079e+018
70400  -2.77429    2.29369   7.79432e+018
70500  -2.77036    2.29246   7.77721e+018
70600  -2.7701    2.29262   7.76655e+018
70700  -2.76167    2.28944   7.74018e+018
70800  -2.75721    2.28805   7.7225e+018
70900  -2.75589    2.288   7.71098e+018
71000  -2.7523    2.28689   7.69477e+018
71100  -2.74532    2.28464   7.67305e+018
71200  -2.74078    2.28324   7.65545e+018
71300  -2.73454    2.28124   7.635e+018
71400  -2.7302    2.27989   7.61767e+018
71500  -2.72812    2.27923   7.60376e+018
71600  -2.72359    2.27763   7.58651e+018
71700  -2.7197    2.2764   7.56993e+018
71800  -2.71222    2.27449   7.54916e+018
71900  -2.70769    2.27307   7.53169e+018
72000  -2.71119    2.27409   7.52649e+018
72100  -2.70693    2.27276   7.50959e+018
72200  -2.70412    2.27182   7.49366e+018
72300  -2.70043    2.27068   7.47782e+018
72400  -2.6954    2.26948   7.46165e+018
72500  -2.689    2.2672   7.44125e+018
72600  -2.68507    2.26599   7.42525e+018
72700  -2.68756    2.26685   7.41859e+018
72800  -2.68348    2.2656   7.40245e+018
72900  -2.67066    2.26129   7.37275e+018
73000  -2.66696    2.26018   7.35735e+018
73100  -2.66475    2.25964   7.34493e+018
73200  -2.66056    2.2583   7.32859e+018
73300  -2.65725    2.25731   7.31296e+018
73400  -2.65782    2.25755   7.30502e+018
73500  -2.65387    2.2563   7.28927e+018
73600  -2.64621    2.25361   7.26663e+018
73700  -2.64248    2.25244   7.25135e+018
73800  -2.64231    2.25245   7.24156e+018
73900  -2.63846    2.25128   7.22622e+018
74000  -2.63148    2.24977   7.20838e+018
74100  -2.62211    2.24667   7.18486e+018
74200  -2.61804    2.24545   7.16946e+018
74300  -2.61717    2.24518   7.15838e+018
74400  -2.61318    2.24393   7.14293e+018
74500  -2.61544    2.24391   7.13369e+018
74600  -2.6121    2.24293   7.11953e+018
74700  -2.60972    2.24307   7.11019e+018
74800  -2.60587    2.24188   7.09521e+018
74900  -2.59871    2.23929   7.07408e+018
75000  -2.59157    2.2372   7.05438e+018
75100  -2.58817    2.23616   7.04018e+018
75200  -2.59092    2.2372   7.03551e+018
75300  -2.5871    2.23603   7.02088e+018
75400  -2.57553    2.23189   6.99293e+018
75500  -2.57201    2.23086   6.97891e+018
75600  -2.56788    2.22952   6.96348e+018
75700  -2.56408    2.22832   6.9489e+018
75800  -2.56025    2.22749   6.93613e+018
75900  -2.55555    2.22566   6.91906e+018
76000  -2.55246    2.22472   6.90564e+018
76100  -2.5573    2.22627   6.90368e+018
76200  -2.55383    2.22517   6.88969e+018
76300  -2.55225    2.22526   6.87971e+018
76400  -2.54851    2.22415   6.86564e+018
76500  -2.53934    2.2213   6.8448e+018
76600  -2.53534    2.22004   6.83019e+018
76700  -2.534    2.21956   6.81879e+018
76800  -2.52842    2.21711   6.79983e+018
76900  -2.52452    2.21591   6.78564e+018
77000  -2.52823    2.21717   6.78216e+018
77100  -2.52457    2.21601   6.76819e+018
77200  -2.51532    2.21327   6.74656e+018
77300  -2.51172    2.21213   6.73267e+018
77400  -2.51215    2.21246   6.72585e+018
77500  -2.50866    2.21137   6.71239e+018
77600  -2.49941    2.20828   6.68978e+018
77700  -2.50409    2.20994   6.68881e+018
77800  -2.50107    2.20901   6.67606e+018
77900  -2.4926    2.20655   6.65616e+018
78000  -2.48972    2.20569   6.64382e+018
78100  -2.49097    2.20594   6.63633e+018
78200  -2.48753    2.20486   6.62316e+018
78300  -2.48053    2.20261   6.6052e+018
78400  -2.47292    2.20026   6.58578e+018
78500  -2.46926    2.19908   6.57225e+018
78600  -2.47112    2.19995   6.56842e+018
78700  -2.46801    2.199   6.55599e+018
78800  -2.46071    2.19613   6.53501e+018
78900  -2.45743    2.19512   6.52231e+018
79000  -2.45323    2.19371   6.50808e+018
79100  -2.44988    2.19265   6.49521e+018
79200  -2.44038    2.19028   6.47624e+018
79300  -2.44248    2.19065   6.46996e+018
79400  -2.4389    2.18951   6.45695e+018
79500  -2.43414    2.18815   6.44344e+018
79600  -2.43102    2.18722   6.43133e+018
79700  -2.42267    2.18499   6.41367e+018
79800  -2.41944    2.184   6.40137e+018
79900  -2.42749    2.1865   6.40321e+018
80000  -2.4245    2.18559   6.3913e+018
80100  -2.41461    2.18213   6.36899e+018
80200  -2.41462    2.1823   6.36104e+018
80300  -2.41185    2.18148   6.34959e+018
80400  -2.41217    2.18185   6.34391e+018
80500  -2.4094    2.18102   6.33246e+018
80600  -2.39828    2.17743   6.30938e+018
80700  -2.3951    2.17643   6.29731e+018
80800  -2.39674    2.17714   6.29216e+018
80900  -2.40057    2.17841   6.2897e+018
81000  -2.39795    2.17761   6.27854e+018
81100  -2.39014    2.17501   6.25978e+018
81200  -2.387    2.17405   6.24794e+018
81300  -2.37583    2.16981   6.22331e+018
81400  -2.37255    2.1688   6.21141e+018
81500  -2.37476    2.16966   6.20653e+018
81600  -2.37179    2.16877   6.19523e+018
81700  -2.36782    2.16775   6.18384e+018
81800  -2.36651    2.16763   6.17522e+018
81900  -2.36342    2.16665   6.16361e+018
82000  -2.3609    2.1663   6.15414e+018
82100  -2.3579    2.16537   6.14278e+018
82200  -2.34976    2.16238   6.1232e+018
82300  -2.34691    2.1615   6.11212e+018
82400  -2.34612    2.16128   6.10417e+018
82500  -2.34286    2.16028   6.0926e+018
82600  -2.34074    2.15954   6.08247e+018
82700  -2.33658    2.15842   6.06969e+018
82800  -2.33358    2.15752   6.05864e+018
82900  -2.33303    2.15755   6.05196e+018
83000  -2.3302    2.1567   6.04113e+018
83100  -2.32319    2.15418   6.02309e+018
83200  -2.32026    2.15328   6.01215e+018
83300  -2.31884    2.15296   6.00457e+018
83400  -2.31608    2.15213   5.99397e+018
83500  -2.31522    2.15163   5.98395e+018
83600  -2.30826    2.14965   5.96884e+018
83700  -2.30541    2.14878   5.95815e+018
83800  -2.30211    2.14754   5.94606e+018
83900  -2.29915    2.14664   5.93537e+018
84000  -2.29922    2.1468   5.92865e+018
84100  -2.29638    2.14592   5.91799e+018
84200  -2.29203    2.14495   5.90743e+018
84300  -2.29472    2.14596   5.90429e+018
84400  -2.29226    2.14521   5.89425e+018
84500  -2.28687    2.14374   5.88095e+018
84600  -2.2839    2.14283   5.87036e+018
84700  -2.28337    2.14241   5.86184e+018
84800  -2.28043    2.14151   5.85127e+018
84900  -2.27781    2.14033   5.83975e+018
85000  -2.27504    2.13949   5.82946e+018
85100  -2.26597    2.13663   5.81126e+018
85200  -2.26715    2.13674   5.80509e+018
85300  -2.26404    2.13578   5.79442e+018
85400  -2.2641    2.13643   5.7899e+018
85500  -2.26134    2.13561   5.77983e+018
85600  -2.25111    2.13228   5.76001e+018
85700  -2.24882    2.1316   5.75055e+018
85800  -2.24567    2.13066   5.73933e+018
85900  -2.24305    2.12987   5.7295e+018
86000  -2.25046    2.1322   5.73289e+018
86100  -2.243    2.12982   5.71686e+018
86200  -2.24026    2.12901   5.70702e+018
86300  -2.24137    2.12957   5.70222e+018
86400  -2.23852    2.12868   5.69217e+018
86500  -2.22928    2.12562   5.67302e+018
86600  -2.22636    2.12474   5.663e+018
86700  -2.22875    2.12565   5.65999e+018
86800  -2.22446    2.12429   5.64834e+018
86900  -2.22154    2.1234   5.63836e+018
87000  -2.21427    2.12132   5.62428e+018
87100  -2.21131    2.12041   5.61433e+018
87200  -2.21299    2.12081   5.60872e+018
87300  -2.21051    2.12008   5.59936e+018
87400  -2.20153    2.11731   5.58246e+018
87500  -2.19887    2.11649   5.5729e+018
87600  -2.20088    2.11717   5.56958e+018
87700  -2.19308    2.1145   5.55231e+018
87800  -2.19013    2.11357   5.54242e+018
87900  -2.1946    2.11499   5.54208e+018
88000  -2.19164    2.11406   5.53219e+018
88100  -2.1842    2.11184   5.51734e+018
88200  -2.18192    2.11115   5.50843e+018
88300  -2.18558    2.11244   5.50719e+018
88400  -2.18294    2.11164   5.49787e+018
88500  -2.16918    2.10746   5.47587e+018
88600  -2.17229    2.10797   5.47086e+018
88700  -2.16971    2.10717   5.46159e+018
88800  -2.17434    2.10884   5.46189e+018
88900  -2.17171    2.10803   5.4526e+018
89000  -2.16951    2.10737   5.44386e+018
89100  -2.16688    2.10654   5.43459e+018
89200  -2.16054    2.10524   5.42326e+018
89300  -2.15607    2.10324   5.4102e+018
89400  -2.15405    2.10264   5.40183e+018
89500  -2.15118    2.1017   5.39246e+018
89600  -2.14866    2.10092   5.38347e+018
89700  -2.14523    2.10043   5.37546e+018
89800  -2.14256    2.09961   5.36631e+018
89900  -2.13659    2.09762   5.35326e+018
90000  -2.13404    2.09633   5.34273e+018
90100  -2.13175    2.09564   5.33417e+018
90200  -2.13303    2.0967   5.33142e+018
90300  -2.13053    2.09595   5.32266e+018
90400  -2.12118    2.09214   5.30242e+018
90500  -2.11851    2.09135   5.29355e+018
90600  -2.12422    2.09393   5.29745e+018
90700  -2.11714    2.09131   5.28191e+018
90800  -2.11498    2.09066   5.27366e+018
90900  -2.11882    2.09173   5.27225e+018
91000  -2.1165    2.09105   5.26392e+018
91100  -2.1095    2.08904   5.25023e+018
91200  -2.10705    2.0883   5.24173e+018
91300  -2.10378    2.08707   5.23144e+018
91400  -2.10548    2.08778   5.22806e+018
91500  -2.1031    2.08706   5.21967e+018
91600  -2.09832    2.08576   5.20972e+018
91700  -2.0962    2.08516   5.20178e+018
91800  -2.09207    2.08385   5.19107e+018
91900  -2.08787    2.08272   5.1811e+018
92000  -2.08554    2.08205   5.17294e+018
92100  -2.08226    2.08054   5.1619e+018
92200  -2.08877    2.08295   5.1648e+018
92300  -2.08661    2.08233   5.15694e+018
92400  -2.07383    2.07865   5.13764e+018
92500  -2.071    2.07742   5.12811e+018
92600  -2.06838    2.07663   5.11967e+018
92700  -2.07312    2.07833   5.11994e+018
92800  -2.07251    2.07804   5.11356e+018
92900  -2.06993    2.07727   5.10523e+018
93000  -2.06703    2.07644   5.09674e+018
93100  -2.06295    2.07541   5.08727e+018
93200  -2.06047    2.07469   5.07913e+018
93300  -2.06285    2.07558   5.07719e+018
93400  -2.05537    2.07304   5.0624e+018
93500  -2.05325    2.0724   5.05465e+018
93600  -2.05279    2.07212   5.04813e+018
93700  -2.05015    2.07134   5.04024e+018
93800  -2.04754    2.07053   5.03193e+018
93900  -2.04425    2.0697   5.02343e+018
94000  -2.04161    2.06888   5.01512e+018
94100  -2.04436    2.06902   5.01111e+018
94200  -2.03703    2.06713   4.99873e+018
94300  -2.03452    2.06635   4.99065e+018
94400  -2.02904    2.06488   4.9797e+018
94500  -2.02697    2.06424   4.97224e+018
94600  -2.03072    2.06572   4.97211e+018
94700  -2.02878    2.06512   4.9647e+018
94800  -2.02052    2.06198   4.94778e+018
94900  -2.02373    2.06362   4.94841e+018
95000  -2.02173    2.06304   4.94108e+018
95100  -2.01839    2.06197   4.93247e+018
95200  -2.0163    2.06135   4.92509e+018
95300  -2.00915    2.05846   4.90985e+018
95400  -2.00598    2.05826   4.90397e+018
95500  -2.00505    2.05759   4.89677e+018
95600  -2.00273    2.05687   4.8891e+018
95700  -2.00787    2.05916   4.89183e+018
95800  -2.00042    2.05632   4.87702e+018
95900  -1.99805    2.05563   4.86944e+018
96000  -1.99423    2.0543   4.85943e+018
96100  -1.99383    2.05464   4.85519e+018
96200  -1.99148    2.05393   4.84761e+018
96300  -1.99116    2.05368   4.84202e+018
96400  -1.98909    2.05305   4.83479e+018
96500  -1.99036    2.05352   4.83108e+018
96600  -1.98823    2.05287   4.82378e+018
96700  -1.98168    2.05119   4.81231e+018
96800  -1.98178    2.05091   4.80712e+018
96900  -1.98483    2.05237   4.80715e+018
97000  -1.9828    2.05176   4.80005e+018
97100  -1.97417    2.04825   4.78317e+018
97200  -1.96768    2.0467   4.77282e+018
97300  -1.96536    2.04593   4.7653e+018
97400  -1.96435    2.0454   4.75879e+018
97500  -1.96525    2.0458   4.75521e+018
97600  -1.96307    2.04511   4.74798e+018
97700  -1.96236    2.04444   4.74104e+018
97800  -1.95526    2.0425   4.72922e+018
97900  -1.95716    2.04306   4.72621e+018
98000  -1.9553    2.04255   4.71959e+018
98100  -1.9555    2.04292   4.71584e+018
98200  -1.95323    2.04221   4.70862e+018
98300  -1.94957    2.04152   4.70166e+018
98400  -1.95093    2.04159   4.69672e+018
98500  -1.94875    2.04091   4.68964e+018
98600  -1.94179    2.03814   4.67637e+018
98700  -1.94355    2.03913   4.67449e+018
98800  -1.94145    2.03845   4.66745e+018
98900  -1.93311    2.03614   4.65461e+018
99000  -1.93402    2.03638   4.65072e+018
99100  -1.93195    2.03575   4.64384e+018
99200  -1.93129    2.03595   4.64035e+018
99300  -1.92542    2.03358   4.627e+018
99400  -1.92343    2.03301   4.62037e+018
99500  -1.92952    2.03544   4.62378e+018
99600  -1.92729    2.03447   4.61629e+018
99700  -1.92529    2.03389   4.60968e+018
99800  -1.91972    2.03219   4.59895e+018
99900  -1.9148    2.03093   4.59014e+018
100000  -1.91704    2.0313   4.58747e+018
